# ngc_1068_drift_180_155.txt
# RA = 40.65704 [degree, J2000]
# DEC = -0.03851 [degree, J2000]
# APERTURE = 155 x 180 [sq. arcsec]
# POSANGLE = 90 [degree, N-->E]
# 
# 1 Wavelength [Angstrom]
# 2 Spectrum   [erg/s/cm2/A]
# 3 Error      [erg/s/cm2/A]
# 4 Sky        [erg/s/cm2/A]
# 
  3678.49    3.42007E-13    2.25560E-14    3.06946E-13
  3681.24    3.73288E-13    2.23440E-14    2.66681E-13
  3683.99    4.01117E-13    2.19164E-14    2.34268E-13
  3686.74    3.76469E-13    2.15337E-14    2.42416E-13
  3689.49    3.46224E-13    2.14585E-14    2.67084E-13
  3692.24    3.52564E-13    2.16527E-14    2.63645E-13
  3694.99    3.72065E-13    2.16486E-14    2.69184E-13
  3697.74    3.21841E-13    2.15712E-14    3.15991E-13
  3700.49    3.36507E-13    2.16436E-14    3.44352E-13
  3703.24    3.51490E-13    2.22209E-14    3.66034E-13
  3705.99    3.39462E-13    2.22698E-14    3.96439E-13
  3708.74    3.41929E-13    2.22515E-14    3.98694E-13
  3711.49    3.64589E-13    2.18452E-14    3.56601E-13
  3714.24    3.80878E-13    2.16951E-14    3.32259E-13
  3716.99    3.70709E-13    2.12215E-14    3.20310E-13
  3719.74    3.55632E-13    2.05032E-14    2.95195E-13
  3722.49    3.43919E-13    1.99600E-14    2.91401E-13
  3725.24    3.45430E-13    2.01073E-14    2.96937E-13
  3727.99    3.60588E-13    2.03189E-14    3.05644E-13
  3730.74    3.99780E-13    2.07972E-14    3.27124E-13
  3733.49    4.30732E-13    2.14794E-14    3.54714E-13
  3736.24    4.59450E-13    2.18903E-14    3.94332E-13
  3738.99    5.67210E-13    2.29691E-14    4.33648E-13
  3741.74    6.83794E-13    2.40527E-14    4.51776E-13
  3744.49    7.31280E-13    2.45013E-14    4.82131E-13
  3747.24    6.70767E-13    2.35216E-14    4.50325E-13
  3749.99    5.51192E-13    2.17968E-14    3.92806E-13
  3752.74    4.51622E-13    2.04064E-14    3.56712E-13
  3755.49    3.96700E-13    1.98369E-14    3.38888E-13
  3758.24    3.82481E-13    1.95168E-14    3.33989E-13
  3760.99    3.72611E-13    1.90090E-14    3.08951E-13
  3763.74    3.64151E-13    1.86664E-14    2.94091E-13
  3766.49    3.62555E-13    1.82915E-14    2.70673E-13
  3769.24    3.70931E-13    1.82655E-14    2.67866E-13
  3771.99    3.88375E-13    1.84083E-14    2.79986E-13
  3774.74    3.99818E-13    1.86060E-14    2.94397E-13
  3777.49    4.11736E-13    1.86243E-14    3.01320E-13
  3780.24    4.00832E-13    1.84490E-14    3.00506E-13
  3782.99    3.92131E-13    1.83478E-14    2.91187E-13
  3785.74    3.91133E-13    1.81602E-14    2.78869E-13
  3788.49    3.72814E-13    1.78396E-14    2.98912E-13
  3791.24    3.80677E-13    1.79861E-14    3.04054E-13
  3793.99    4.30226E-13    1.83270E-14    2.92484E-13
  3796.74    4.35818E-13    1.83289E-14    2.98187E-13
  3799.49    4.54260E-13    1.82597E-14    2.90237E-13
  3802.24    4.58641E-13    1.79890E-14    2.72643E-13
  3804.99    4.48883E-13    1.78034E-14    2.70114E-13
  3807.74    4.21560E-13    1.73914E-14    2.67119E-13
  3810.49    3.87265E-13    1.70100E-14    2.66822E-13
  3813.24    3.76484E-13    1.69550E-14    2.78438E-13
  3815.99    3.93298E-13    1.72539E-14    2.82848E-13
  3818.74    3.96288E-13    1.73545E-14    3.05153E-13
  3821.49    4.00418E-13    1.74836E-14    3.15399E-13
  3824.24    4.55321E-13    1.77956E-14    2.95427E-13
  3826.99    4.69853E-13    1.78904E-14    2.99962E-13
  3829.74    4.81692E-13    1.80977E-14    3.28045E-13
  3832.49    4.77141E-13    1.82519E-14    3.65472E-13
  3835.24    4.35883E-13    1.79772E-14    3.91314E-13
  3837.99    4.38195E-13    1.78110E-14    3.75825E-13
  3840.74    4.27279E-13    1.71915E-14    3.40390E-13
  3843.49    3.88259E-13    1.69902E-14    3.32003E-13
  3846.24    3.55893E-13    1.64681E-14    3.35231E-13
  3848.99    3.53367E-13    1.61460E-14    3.12877E-13
  3851.74    3.45190E-13    1.58185E-14    2.83689E-13
  3854.49    3.43147E-13    1.54884E-14    2.77691E-13
  3857.24    3.72068E-13    1.56157E-14    2.59188E-13
  3859.99    4.02649E-13    1.57996E-14    2.43760E-13
  3862.74    4.44739E-13    1.58148E-14    2.38018E-13
  3865.49    4.75166E-13    1.59646E-14    2.38499E-13
  3868.24    4.77759E-13    1.62668E-14    2.52155E-13
  3870.99    4.95630E-13    1.60979E-14    2.43397E-13
  3873.74    5.30304E-13    1.60772E-14    2.20597E-13
  3876.49    5.43989E-13    1.62178E-14    2.27292E-13
  3879.24    5.55051E-13    1.63851E-14    2.40466E-13
  3881.99    6.24885E-13    1.66123E-14    2.15150E-13
  3884.74    6.36673E-13    1.67087E-14    2.09440E-13
  3887.49    6.22173E-13    1.64390E-14    2.16270E-13
  3890.24    5.82739E-13    1.60702E-14    2.07298E-13
  3892.99    5.47539E-13    1.55548E-14    2.02588E-13
  3895.74    5.02259E-13    1.53632E-14    2.14878E-13
  3898.49    4.66435E-13    1.50327E-14    2.29403E-13
  3901.24    4.50411E-13    1.49588E-14    2.39692E-13
  3903.99    4.20901E-13    1.48003E-14    2.58908E-13
  3906.74    4.27280E-13    1.50419E-14    2.83731E-13
  3909.49    4.30143E-13    1.54364E-14    3.19393E-13
  3912.24    4.43395E-13    1.55965E-14    3.39396E-13
  3914.99    4.62872E-13    1.56664E-14    3.29618E-13
  3917.74    4.70156E-13    1.55204E-14    3.16407E-13
  3920.49    4.87310E-13    1.53573E-14    2.89605E-13
  3923.24    5.16574E-13    1.51986E-14    2.53695E-13
  3925.99    5.11348E-13    1.49623E-14    2.45000E-13
  3928.74    5.22914E-13    1.49643E-14    2.36044E-13
  3931.49    5.29702E-13    1.48147E-14    2.12791E-13
  3934.24    5.13343E-13    1.45168E-14    2.10051E-13
  3936.99    4.96445E-13    1.43142E-14    2.13667E-13
  3939.74    4.95438E-13    1.43632E-14    2.20957E-13
  3942.49    4.52096E-13    1.42831E-14    2.58136E-13
  3945.24    4.40801E-13    1.41662E-14    2.68261E-13
  3947.99    3.99681E-13    1.38412E-14    2.63980E-13
  3950.74    3.60255E-13    1.34128E-14    2.64912E-13
  3953.49    3.67240E-13    1.34210E-14    2.61741E-13
  3956.24    4.00832E-13    1.35482E-14    2.50633E-13
  3958.99    4.37581E-13    1.37117E-14    2.41295E-13
  3961.74    4.57170E-13    1.37748E-14    2.37865E-13
  3964.49    4.74173E-13    1.37040E-14    2.28129E-13
  3967.24    4.98851E-13    1.36071E-14    2.04414E-13
  3969.99    5.17428E-13    1.35777E-14    1.85527E-13
  3972.74    5.11114E-13    1.35722E-14    1.89474E-13
  3975.49    5.03808E-13    1.36211E-14    2.04229E-13
  3978.24    4.86025E-13    1.37509E-14    2.27675E-13
  3980.99    4.48921E-13    1.36603E-14    2.43871E-13
  3983.74    4.18828E-13    1.35614E-14    2.41690E-13
  3986.49    3.85218E-13    1.32586E-14    2.49933E-13
  3989.24    3.92147E-13    1.30282E-14    2.44074E-13
  3991.99    4.35288E-13    1.32127E-14    2.28567E-13
  3994.74    4.61935E-13    1.36060E-14    2.40935E-13
  3997.49    4.91481E-13    1.38163E-14    2.40871E-13
  4000.24    5.25063E-13    1.40029E-14    2.47796E-13
  4002.99    5.43088E-13    1.41297E-14    2.49916E-13
  4005.74    5.59692E-13    1.44515E-14    2.65533E-13
  4008.49    5.86017E-13    1.47271E-14    2.68624E-13
  4011.24    5.97185E-13    1.49921E-14    2.88864E-13
  4013.99    5.95763E-13    1.51579E-14    3.15267E-13
  4016.74    6.09697E-13    1.51869E-14    3.06776E-13
  4019.49    6.12445E-13    1.51013E-14    3.05241E-13
  4022.24    6.05536E-13    1.50337E-14    3.00394E-13
  4024.99    6.10092E-13    1.50920E-14    2.96810E-13
  4027.74    6.28384E-13    1.51142E-14    2.86662E-13
  4030.49    6.35423E-13    1.51795E-14    2.82733E-13
  4033.24    6.31877E-13    1.52036E-14    2.88359E-13
  4035.99    6.60083E-13    1.51519E-14    2.68118E-13
  4038.74    6.49454E-13    1.51766E-14    2.85620E-13
  4041.49    6.53711E-13    1.52820E-14    2.98648E-13
  4044.24    6.40443E-13    1.53871E-14    3.28380E-13
  4046.99    6.29665E-13    1.56239E-14    3.57430E-13
  4049.74    6.13926E-13    1.55373E-14    3.74624E-13
  4052.49    6.21331E-13    1.54096E-14    3.54374E-13
  4055.24    6.38485E-13    1.52636E-14    3.23511E-13
  4057.99    6.35292E-13    1.50150E-14    3.04222E-13
  4060.74    6.28785E-13    1.49806E-14    3.06556E-13
  4063.49    6.18906E-13    1.50030E-14    3.20845E-13
  4066.24    6.19917E-13    1.50328E-14    3.30450E-13
  4068.99    6.29160E-13    1.50134E-14    3.31780E-13
  4071.74    6.16869E-13    1.48603E-14    3.34379E-13
  4074.49    6.09069E-13    1.46986E-14    3.24277E-13
  4077.24    6.00594E-13    1.45377E-14    3.25644E-13
  4079.99    5.88264E-13    1.43821E-14    3.23002E-13
  4082.74    6.02760E-13    1.43246E-14    3.07787E-13
  4085.49    6.02471E-13    1.42063E-14    3.00746E-13
  4088.24    6.16305E-13    1.40404E-14    2.79902E-13
  4090.99    5.95160E-13    1.38857E-14    2.84304E-13
  4093.74    5.91504E-13    1.36773E-14    2.69666E-13
  4096.49    5.88287E-13    1.35503E-14    2.57418E-13
  4099.24    5.83765E-13    1.34324E-14    2.48806E-13
  4101.99    5.75615E-13    1.32949E-14    2.52249E-13
  4104.74    5.72416E-13    1.31224E-14    2.41472E-13
  4107.49    5.73016E-13    1.30091E-14    2.30933E-13
  4110.24    5.56603E-13    1.29365E-14    2.36500E-13
  4112.99    5.26859E-13    1.27057E-14    2.41211E-13
  4115.74    4.98140E-13    1.24873E-14    2.46929E-13
  4118.49    5.04423E-13    1.24147E-14    2.29325E-13
  4121.24    4.99203E-13    1.24465E-14    2.34222E-13
  4123.99    5.07560E-13    1.24889E-14    2.42962E-13
  4126.74    5.08236E-13    1.25387E-14    2.60510E-13
  4129.49    5.34337E-13    1.27208E-14    2.56960E-13
  4132.24    5.44872E-13    1.28004E-14    2.63910E-13
  4134.99    5.45245E-13    1.29075E-14    2.73912E-13
  4137.74    5.67470E-13    1.29299E-14    2.63112E-13
  4140.49    5.64059E-13    1.27779E-14    2.67065E-13
  4143.24    5.54729E-13    1.26575E-14    2.66918E-13
  4145.99    5.54628E-13    1.25334E-14    2.49218E-13
  4148.74    5.57854E-13    1.25322E-14    2.39366E-13
  4151.49    5.57256E-13    1.26141E-14    2.45031E-13
  4154.24    5.78504E-13    1.26984E-14    2.45819E-13
  4156.99    5.98164E-13    1.28387E-14    2.56203E-13
  4159.74    5.88241E-13    1.28959E-14    2.76397E-13
  4162.49    5.90664E-13    1.30123E-14    2.86550E-13
  4165.24    5.80677E-13    1.31470E-14    3.05076E-13
  4167.99    5.72397E-13    1.32733E-14    3.25294E-13
  4170.74    5.54278E-13    1.33014E-14    3.46553E-13
  4173.49    5.73231E-13    1.33213E-14    3.31176E-13
  4176.24    5.80728E-13    1.32201E-14    3.17744E-13
  4178.99    5.94323E-13    1.31295E-14    3.02154E-13
  4181.74    5.93824E-13    1.31261E-14    2.99816E-13
  4184.49    5.83748E-13    1.29957E-14    2.92784E-13
  4187.24    5.94868E-13    1.28445E-14    2.67350E-13
  4189.99    5.89441E-13    1.27836E-14    2.60667E-13
  4192.74    5.87179E-13    1.26530E-14    2.53409E-13
  4195.49    5.83485E-13    1.25829E-14    2.51524E-13
  4198.24    5.97360E-13    1.26260E-14    2.44086E-13
  4200.99    6.02615E-13    1.26083E-14    2.38418E-13
  4203.74    5.95384E-13    1.25663E-14    2.39382E-13
  4206.49    6.14608E-13    1.26549E-14    2.34557E-13
  4209.24    6.12460E-13    1.28052E-14    2.45799E-13
  4211.99    6.07694E-13    1.27556E-14    2.54748E-13
  4214.74    6.14015E-13    1.26470E-14    2.46202E-13
  4217.49    6.05264E-13    1.25675E-14    2.39147E-13
  4220.24    6.02307E-13    1.24284E-14    2.31721E-13
  4222.99    6.17768E-13    1.25071E-14    2.28337E-13
  4225.74    6.18368E-13    1.24993E-14    2.29696E-13
  4228.49    6.27693E-13    1.25234E-14    2.28100E-13
  4231.24    6.37298E-13    1.24868E-14    2.23007E-13
  4233.99    6.35156E-13    1.24815E-14    2.23678E-13
  4236.74    6.24934E-13    1.24320E-14    2.28553E-13
  4239.49    6.26424E-13    1.23583E-14    2.26547E-13
  4242.24    6.23333E-13    1.22005E-14    2.18923E-13
  4244.99    5.99300E-13    1.20935E-14    2.26883E-13
  4247.74    5.91629E-13    1.21523E-14    2.43700E-13
  4250.49    6.07913E-13    1.21986E-14    2.45948E-13
  4253.24    6.20827E-13    1.22422E-14    2.45921E-13
  4255.99    6.15330E-13    1.21938E-14    2.45408E-13
  4258.74    6.23392E-13    1.21868E-14    2.45080E-13
  4261.49    6.26705E-13    1.21978E-14    2.47389E-13
  4264.24    6.19605E-13    1.21298E-14    2.47851E-13
  4266.99    6.13939E-13    1.20927E-14    2.45433E-13
  4269.74    6.12162E-13    1.19523E-14    2.37872E-13
  4272.49    6.21019E-13    1.19378E-14    2.31957E-13
  4275.24    6.13493E-13    1.18794E-14    2.35081E-13
  4277.99    6.10590E-13    1.18042E-14    2.31735E-13
  4280.74    6.15903E-13    1.17356E-14    2.27126E-13
  4283.49    6.19229E-13    1.16756E-14    2.28862E-13
  4286.24    5.98616E-13    1.16653E-14    2.36188E-13
  4288.99    5.78916E-13    1.14840E-14    2.34982E-13
  4291.74    5.83030E-13    1.13356E-14    2.18481E-13
  4294.49    5.93305E-13    1.13157E-14    2.16293E-13
  4297.24    5.90473E-13    1.14068E-14    2.23942E-13
  4299.99    5.95057E-13    1.13115E-14    2.21715E-13
  4302.74    5.91959E-13    1.11870E-14    2.10016E-13
  4305.49    5.83509E-13    1.11008E-14    2.05219E-13
  4308.24    5.74980E-13    1.10255E-14    2.07296E-13
  4310.99    5.69952E-13    1.09629E-14    2.05347E-13
  4313.74    5.59278E-13    1.10157E-14    2.22841E-13
  4316.49    5.34316E-13    1.09928E-14    2.42615E-13
  4319.24    5.27644E-13    1.08669E-14    2.40743E-13
  4321.99    5.17447E-13    1.08076E-14    2.36624E-13
  4324.74    5.13293E-13    1.06839E-14    2.29800E-13
  4327.49    5.13825E-13    1.05740E-14    2.23489E-13
  4330.24    5.36522E-13    1.06220E-14    2.17939E-13
  4332.99    5.65693E-13    1.07625E-14    2.21315E-13
  4335.74    5.84693E-13    1.10202E-14    2.30046E-13
  4338.49    6.05895E-13    1.10747E-14    2.22656E-13
  4341.24    5.96589E-13    1.10058E-14    2.14087E-13
  4343.99    5.78365E-13    1.09488E-14    2.16426E-13
  4346.74    5.90427E-13    1.08950E-14    2.15777E-13
  4349.49    5.88195E-13    1.08482E-14    2.26888E-13
  4352.24    5.94747E-13    1.09271E-14    2.36064E-13
  4354.99    5.99281E-13    1.10685E-14    2.45772E-13
  4357.74    6.04013E-13    1.13494E-14    2.79708E-13
  4360.49    6.06018E-13    1.14873E-14    3.16052E-13
  4363.24    6.19440E-13    1.15035E-14    3.12476E-13
  4365.99    5.99921E-13    1.12157E-14    2.82854E-13
  4368.74    5.86976E-13    1.09601E-14    2.55832E-13
  4371.49    5.81518E-13    1.08587E-14    2.45878E-13
  4374.24    6.01310E-13    1.09171E-14    2.37344E-13
  4376.99    6.28416E-13    1.10057E-14    2.31081E-13
  4379.74    6.46553E-13    1.11966E-14    2.39562E-13
  4382.49    6.62793E-13    1.12453E-14    2.35677E-13
  4385.24    6.58369E-13    1.12089E-14    2.28878E-13
  4387.99    6.46538E-13    1.11020E-14    2.26496E-13
  4390.74    6.30346E-13    1.09479E-14    2.26666E-13
  4393.49    6.20610E-13    1.09405E-14    2.28542E-13
  4396.24    6.21669E-13    1.10237E-14    2.29522E-13
  4398.99    6.11016E-13    1.09683E-14    2.34437E-13
  4401.74    6.03237E-13    1.09180E-14    2.38878E-13
  4404.49    6.00875E-13    1.09572E-14    2.44697E-13
  4407.24    5.86962E-13    1.10202E-14    2.74480E-13
  4409.99    6.00939E-13    1.12226E-14    2.90194E-13
  4412.74    6.20614E-13    1.12733E-14    2.89088E-13
  4415.49    6.23389E-13    1.13972E-14    2.96009E-13
  4418.24    6.37075E-13    1.14990E-14    2.96615E-13
  4420.99    6.35779E-13    1.14144E-14    2.88533E-13
  4423.74    6.29979E-13    1.14035E-14    2.94524E-13
  4426.49    6.34742E-13    1.14630E-14    2.92556E-13
  4429.24    6.51420E-13    1.15564E-14    2.77714E-13
  4431.99    6.58180E-13    1.16270E-14    2.76900E-13
  4434.74    6.37137E-13    1.15599E-14    2.81079E-13
  4437.49    6.34955E-13    1.15963E-14    2.82577E-13
  4440.24    6.53155E-13    1.14008E-14    2.71292E-13
  4442.99    6.66844E-13    1.13892E-14    2.60968E-13
  4445.74    6.58866E-13    1.14750E-14    2.69100E-13
  4448.49    6.60420E-13    1.13473E-14    2.57531E-13
  4451.24    6.54412E-13    1.12123E-14    2.51202E-13
  4453.99    6.48425E-13    1.11667E-14    2.47849E-13
  4456.74    6.46980E-13    1.11523E-14    2.40323E-13
  4459.49    6.58153E-13    1.12236E-14    2.35996E-13
  4462.24    6.50847E-13    1.11601E-14    2.38689E-13
  4464.99    6.49185E-13    1.10992E-14    2.39729E-13
  4467.74    6.64722E-13    1.11853E-14    2.36754E-13
  4470.49    6.59657E-13    1.11971E-14    2.38096E-13
  4473.24    6.50177E-13    1.10334E-14    2.35116E-13
  4475.99    6.28127E-13    1.10124E-14    2.40074E-13
  4478.74    6.34334E-13    1.09769E-14    2.33478E-13
  4481.49    6.26591E-13    1.08795E-14    2.33385E-13
  4484.24    6.28391E-13    1.09403E-14    2.38327E-13
  4486.99    6.45331E-13    1.09851E-14    2.41604E-13
  4489.74    6.51878E-13    1.10355E-14    2.43754E-13
  4492.49    6.68738E-13    1.10590E-14    2.40534E-13
  4495.24    6.73376E-13    1.10692E-14    2.39943E-13
  4497.99    6.68612E-13    1.11081E-14    2.46784E-13
  4500.74    6.56218E-13    1.11036E-14    2.52111E-13
  4503.49    6.64294E-13    1.11253E-14    2.43955E-13
  4506.24    6.64705E-13    1.11987E-14    2.50660E-13
  4508.99    6.60590E-13    1.10951E-14    2.56730E-13
  4511.74    6.55657E-13    1.10730E-14    2.54854E-13
  4514.49    6.55750E-13    1.09969E-14    2.52077E-13
  4517.24    6.67452E-13    1.10462E-14    2.51450E-13
  4519.99    6.78819E-13    1.11455E-14    2.52982E-13
  4522.74    6.96673E-13    1.11960E-14    2.47968E-13
  4525.49    7.00087E-13    1.12113E-14    2.56923E-13
  4528.24    7.05266E-13    1.12340E-14    2.59424E-13
  4530.99    6.97767E-13    1.12064E-14    2.64228E-13
  4533.74    6.93973E-13    1.11710E-14    2.68710E-13
  4536.49    6.79880E-13    1.11699E-14    2.80237E-13
  4539.24    6.77955E-13    1.12682E-14    2.81687E-13
  4541.99    6.70832E-13    1.11158E-14    2.76845E-13
  4544.74    6.54110E-13    1.10998E-14    2.78442E-13
  4547.49    6.47762E-13    1.09646E-14    2.77340E-13
  4550.24    6.31710E-13    1.08259E-14    2.72599E-13
  4552.99    6.35476E-13    1.08196E-14    2.67773E-13
  4555.74    6.50016E-13    1.08933E-14    2.63921E-13
  4558.49    6.60055E-13    1.09581E-14    2.63209E-13
  4561.24    6.64390E-13    1.09126E-14    2.61387E-13
  4563.99    6.62243E-13    1.08780E-14    2.61580E-13
  4566.74    6.59653E-13    1.08655E-14    2.52892E-13
  4569.49    6.39503E-13    1.07372E-14    2.60121E-13
  4572.24    6.42968E-13    1.07320E-14    2.57906E-13
  4574.99    6.48611E-13    1.07594E-14    2.57808E-13
  4577.74    6.74549E-13    1.08607E-14    2.52868E-13
  4580.49    6.80125E-13    1.09336E-14    2.65824E-13
  4583.24    6.92606E-13    1.09502E-14    2.55322E-13
  4585.99    6.76031E-13    1.09319E-14    2.67041E-13
  4588.74    6.84248E-13    1.09248E-14    2.62522E-13
  4591.49    6.92268E-13    1.09407E-14    2.55093E-13
  4594.24    6.91140E-13    1.08747E-14    2.50261E-13
  4596.99    6.79743E-13    1.07972E-14    2.53198E-13
  4599.74    6.76048E-13    1.07416E-14    2.47557E-13
  4602.49    6.69165E-13    1.07080E-14    2.45278E-13
  4605.24    6.60773E-13    1.07219E-14    2.48093E-13
  4607.99    6.68151E-13    1.07205E-14    2.46813E-13
  4610.74    6.81165E-13    1.07548E-14    2.47203E-13
  4613.49    6.72632E-13    1.07467E-14    2.47448E-13
  4616.24    6.78831E-13    1.07322E-14    2.46628E-13
  4618.99    6.81963E-13    1.06878E-14    2.43412E-13
  4621.74    6.76939E-13    1.06644E-14    2.45571E-13
  4624.49    6.95458E-13    1.07012E-14    2.40416E-13
  4627.24    6.95243E-13    1.07250E-14    2.43676E-13
  4629.99    6.95884E-13    1.07810E-14    2.49714E-13
  4632.74    6.97251E-13    1.08233E-14    2.54704E-13
  4635.49    7.13559E-13    1.07750E-14    2.38484E-13
  4638.24    7.08365E-13    1.07286E-14    2.39111E-13
  4640.99    7.17964E-13    1.07193E-14    2.33632E-13
  4643.74    7.00633E-13    1.07159E-14    2.44687E-13
  4646.49    7.00531E-13    1.07004E-14    2.45842E-13
  4649.24    7.12053E-13    1.06584E-14    2.31043E-13
  4651.99    7.10962E-13    1.06282E-14    2.30834E-13
  4654.74    7.01971E-13    1.06124E-14    2.36017E-13
  4657.49    6.93942E-13    1.06023E-14    2.43874E-13
  4660.24    6.81082E-13    1.05561E-14    2.57087E-13
